# Wilkinson Microwave Anisotropy Probe (WMAP) year 1 data release.
# WMAP One-Year Combined TT Power Spectrum, version 1.1 (Feb 2003)
# Reference = WMAP Explanatory Supplement: http://lambda.gsfc.nasa.gov/
# Column 1 = multipole moment l
# Column 2 = TT power spectrum, units = uK^2, =  l(l+1)/2pi * C_l.
# Column 3 = 'Error' from diagonal terms of Fisher matrix, units = uK^2.
#             Included only as an estimate of their magnitude.  The
#             multipole moments are slightly coupled, so a correct
#             treatment of errors requires use of the entire Fisher matrix.
# Column 4 = portion of column3 error attributed to measurement errors,
#             units = uK^2.
# Column 5 = portion of column3 error attributed to cosmic variance, 
#             assuming the best-fit running index model described in
#             "First Year WMAP Results: Determination of Cosmological 
#              Parameters", Spergel et al. (2003). Units = uK^2
# 
# Revision History:
#  v1  : initial release
#  v1p1: revised column 3 based on best-fit model C_l instead of 
#        data C_l; added columns 4 and 5. 21 Feb 2003
# 
    2     123.3820     762.6369       3.3813     759.2556
    3     611.7750     608.1737       4.0262     604.1475
    4     756.6160     503.9580       4.3394     499.6186
    5    1256.7000     432.1765       4.5485     427.6281
    6     696.4790     380.1810       4.7410     375.4400
    7     829.8190     342.6010       4.9938     337.6072
    8     627.8620     314.4434       5.6118     308.8315
    9     815.1740     292.4860       5.6880     286.7980
   10     617.7500     275.5059       5.9813     269.5246
   11    1251.6700     262.5833       6.2671     256.3162
   12     758.7730     252.7137       6.6378     246.0759
   13     714.5950     244.6297       6.8215     237.8082
   14     907.1200     238.2403       7.1784     231.0619
   15     871.6480     232.8358       7.2772     225.5587
   16     628.6330     228.9148       7.8408     221.0741
   17    1042.0900     225.1925       7.7630     217.4295
   18     742.3790     222.6817       8.2045     214.4772
   19     947.1550     220.5788       8.4873     212.0915
   20     870.9060     218.9343       8.7701     210.1642
   21     706.1020     217.6281       9.0211     208.6070
   22     431.8440     216.4239       9.0598     207.3641
   23     660.0120     215.9546       9.5621     206.3925
   24     960.8510     215.6964      10.0423     205.6541
   25     849.1200     215.2456      10.1301     205.1155
   26     866.8620     215.2438      10.4968     204.7470
   27    1097.4200     215.3130      10.7912     204.5219
   28    1408.1899     215.5949      11.1789     204.4160
   29     899.1070     215.8083      11.4006     204.4077
   30    1007.8600     216.2199      11.7429     204.4770
   31    1078.1300     216.7738      12.1657     204.6081
   32    1607.0800     217.0790      12.2839     204.7951
   33    1188.0400     217.6776      12.6428     205.0348
   34    1067.9700     218.3189      12.9942     205.3246
   35     910.3670     218.9799      13.3177     205.6622
   36    1104.4200     219.5758      13.5302     206.0456
   37    1431.3400     220.0054      13.5325     206.4729
   38    1282.0601     221.1955      14.2527     206.9428
   39    1381.4301     221.6775      14.2236     207.4539
   40    1927.2400     222.9571      14.9520     208.0051
   41    1266.0400     223.6924      15.0971     208.5953
   42    1297.2500     224.5806      15.3572     209.2234
   43    1471.1600     225.6064      15.7184     209.8881
   44    1363.2100     226.6716      16.0832     210.5885
   45    1001.1000     227.6475      16.3239     211.3235
   46    1061.7300     228.8186      16.7261     212.0926
   47    1564.8000     229.9061      17.0114     212.8948
   48    1044.3000     231.0920      17.3625     213.7296
   49    1485.0300     231.8820      17.2857     214.5963
   50    1469.1801     233.4651      17.9705     215.4946
   51    1136.4600     234.9455      18.5215     216.4239
   52    1658.5500     235.6480      18.2644     217.3836
   53    1119.1100     237.0607      18.6878     218.3730
   54    1114.6300     238.8759      19.4844     219.3914
   55    1542.1700     240.0310      19.5926     220.4384
   56    1526.9700     241.4793      19.9658     221.5135
   57    1625.0699     242.6322      20.0161     222.6161
   58    1705.0100     244.1375      20.3916     223.7459
   59    1279.7500     246.0827      21.1802     224.9025
   60    1930.2000     247.8603      21.7749     226.0854
   61    1623.6300     249.2973      22.0029     227.2944
   62    1893.5300     250.7823      22.2533     228.5290
   63    1631.5900     252.4458      22.6574     229.7884
   64    1451.5400     254.1817      23.1096     231.0722
   65    1521.1200     255.4839      23.1041     232.3798
   66    1617.3400     257.3647      23.6539     233.7108
   67    1659.0200     259.1348      24.0701     235.0646
   68    1819.3500     261.0037      24.5627     236.4409
   69    2297.1899     262.7328      24.8936     237.8393
   70    1762.3101     264.1296      24.8703     239.2593
   71    1690.5000     266.5966      25.8960     240.7005
   72    1505.2300     267.9540      25.7919     242.1622
   73    2635.2600     270.1395      26.4961     243.6434
   74    2110.7400     272.0579      26.9144     245.1435
   75    1917.1400     273.7867      27.1250     246.6616
   76    1766.5400     276.5194      28.3224     248.1970
   77    1958.4900     277.4083      27.6592     249.7491
   78    1831.3700     279.4834      28.1665     251.3170
   79    1644.0000     281.8693      28.9691     252.9002
   80    2249.8000     283.9023      29.4044     254.4979
   81    2149.7200     286.1450      30.0353     256.1097
   82    2826.3799     288.1681      30.4324     257.7357
   83    2002.2300     290.1779      30.8021     259.3757
   84    1715.9200     291.9974      30.9674     261.0300
   85    2416.5000     293.9919      31.2934     262.6986
   86    2427.5400     296.2784      31.8967     264.3817
   87    2503.2700     298.1076      32.0284     266.0792
   88    1839.1700     300.2233      32.4319     267.7914
   89    2453.2300     302.6605      33.1421     269.5183
   90    2266.8501     304.9829      33.7229     271.2600
   91    2570.7200     306.8956      33.8790     273.0166
   92    2456.4700     309.1736      34.3860     274.7876
   93    2773.5901     311.5132      34.9407     276.5725
   94    2112.3000     313.4795      35.1085     278.3710
   95    2116.3201     315.7608      35.5783     280.1824
   96    2442.2100     317.9156      35.9090     282.0065
   97    2484.0100     320.6689      36.8261     283.8428
   98    1887.4800     322.8186      37.1278     285.6909
   99    2694.6399     325.1634      37.6131     287.5502
  100    3034.3999     327.5099      38.0893     289.4206
  101    2652.8899     299.1172       7.8157     291.3015
  102    2935.2100     301.1437       7.9510     293.1927
  103    2630.0400     303.1814       8.0878     295.0936
  104    2863.8401     305.2299       8.2259     297.0041
  105    2239.3799     307.2890       8.3654     298.9236
  106    2532.6299     309.3582       8.5063     300.8519
  107    3119.9900     311.4372       8.6485     302.7887
  108    3531.7800     313.5257       8.7922     304.7335
  109    2767.6899     315.6234       8.9373     306.6862
  110    3432.7600     317.7300       9.0837     308.6463
  111    2849.1699     319.8450       9.2317     310.6134
  112    2872.2300     321.9675       9.3810     312.5865
  113    2498.3201     324.0963       9.5318     314.5645
  114    2111.7400     326.2304       9.6840     316.5464
  115    3267.9399     328.3687       9.8377     318.5310
  116    3479.5500     330.5100       9.9928     320.5173
  117    4595.6299     332.6535      10.1493     322.5042
  118    3658.6399     334.7981      10.3074     324.4907
  119    3438.8201     336.9428      10.4669     326.4759
  120    3007.9800     339.0866      10.6279     328.4587
  121    4337.7402     341.2285      10.7904     330.4381
  122    2956.8799     343.3677      10.9543     332.4133
  123    3265.8601     345.5034      11.1201     334.3832
  124    2981.2300     347.6349      11.2879     336.3470
  125    3084.3501     349.7609      11.4572     338.3037
  126    3598.5601     351.8805      11.6281     340.2524
  127    3479.0500     353.9928      11.8005     342.1923
  128    3553.0000     356.0970      11.9746     344.1224
  129    3274.7100     358.1922      12.1502     346.0420
  130    3858.1399     360.2775      12.3275     347.9501
  131    3090.7700     362.3522      12.5063     349.8459
  132    3187.2500     364.4157      12.6867     351.7290
  133    3395.0901     366.4674      12.8688     353.5986
  134    3675.7600     368.5068      13.0525     355.4543
  135    3978.9800     370.5333      13.2378     357.2954
  136    4476.5698     372.5463      13.4248     359.1216
  137    3741.1499     374.5455      13.6134     360.9320
  138    3869.3799     376.5302      13.8038     362.7264
  139    4185.8599     378.5000      13.9958     364.5042
  140    4172.4102     380.4542      14.1894     366.2648
  141    4222.6001     382.3924      14.3847     368.0077
  142    4096.1699     384.3142      14.5817     369.7325
  143    4251.5298     386.2190      14.7805     371.4385
  144    3655.4900     388.1064      14.9810     373.1255
  145    5231.4399     389.9758      15.1831     374.7927
  146    4097.1001     391.8269      15.3870     376.4398
  147    3949.5901     393.6590      15.5926     378.0663
  148    3900.2500     395.4719      15.8001     379.6718
  149    3399.8000     397.2650      16.0093     381.2557
  150    4220.6802     399.0378      16.2202     382.8175
  151    4182.7300     400.7899      16.4331     384.3568
  152    4428.0698     402.5209      16.6476     385.8732
  153    4789.3198     404.2299      16.8639     387.3660
  154    4042.2700     405.9170      17.0822     388.8348
  155    4732.4902     407.5812      17.3022     390.2790
  156    4129.2202     409.2222      17.5240     391.6982
  157    4487.5200     410.8395      17.7478     393.0917
  158    5116.0200     412.4327      17.9735     394.4592
  159    4780.5698     414.0012      18.2011     395.8000
  160    4663.0400     415.5448      18.4309     397.1139
  161    4505.6899     417.0629      18.6627     398.4002
  162    4278.8301     418.5557      18.8973     399.6584
  163    4385.3301     420.0222      19.1341     400.8882
  164    4436.9399     421.4618      19.3729     402.0889
  165    4421.6201     422.8739      19.6137     403.2602
  166    4444.7598     424.2582      19.8565     404.4016
  167    4899.3999     425.6142      20.1015     405.5127
  168    4996.2100     426.9413      20.3484     406.5929
  169    4757.9600     428.2393      20.5975     407.6418
  170    4289.2900     429.5077      20.8486     408.6591
  171    4572.1001     430.7460      21.1020     409.6440
  172    4689.1499     431.9539      21.3574     410.5965
  173    4945.3999     433.1309      21.6150     411.5159
  174    4636.6899     434.2766      21.8748     412.4018
  175    5132.3501     435.3905      22.1367     413.2538
  176    5291.8301     436.4723      22.4009     414.0714
  177    4906.1299     437.5216      22.6673     414.8543
  178    5036.7100     438.5381      22.9361     415.6020
  179    6034.5400     439.5211      23.2069     416.3141
  180    5097.6201     440.4704      23.4802     416.9902
  181    3655.3611     441.3857      23.7558     417.6299
  182    4459.3760     442.2665      24.0338     418.2327
  183    4202.4458     443.1124      24.3140     418.7983
  184    5565.5771     443.9230      24.5967     419.3263
  185    5292.7871     444.6981      24.8818     419.8163
  186    4965.5161     445.4371      25.1693     420.2678
  187    5221.6299     446.1398      25.4593     420.6805
  188    5948.0908     446.8058      25.7518     421.0540
  189    6163.9219     447.4347      26.0468     421.3879
  190    5495.4351     448.0262      26.3444     421.6818
  191    5468.0000     448.5798      26.6445     421.9353
  192    6175.0918     449.0953      26.9471     422.1481
  193    5738.8950     449.5723      27.2525     422.3198
  194    5214.8569     450.0104      27.5604     422.4500
  195    4661.0420     450.4094      27.8710     422.5383
  196    5356.1099     450.7687      28.1843     422.5844
  197    5740.6660     451.0882      28.5004     422.5879
  198    5702.0669     451.3676      28.8192     422.5484
  199    5105.9868     451.6064      29.1408     422.4655
  200    6152.4800     459.0997      29.9409     429.1588
  201    5074.6128     456.8416      27.8561     428.9855
  202    5240.9780     456.9322      28.1642     428.7680
  203    5815.8320     456.9815      28.4751     428.5064
  204    5448.9810     457.0176      28.7904     428.2273
  205    5391.9409     456.9856      29.1067     427.8789
  206    4888.0298     456.9135      29.4258     427.4877
  207    4442.5239     456.8294      29.7495     427.0799
  208    4605.2349     456.6784      30.0743     426.6040
  209    4306.1968     456.5163      30.4039     426.1123
  210    5648.5791     456.2878      30.7344     425.5533
  211    5285.3618     456.0489      31.0698     424.9791
  212    5689.2061     455.7445      31.4063     424.3382
  213    5726.2051     455.4306      31.7478     423.6828
  214    5140.9419     455.0796      32.0924     422.9872
  215    6542.2061     454.6643      32.4381     422.2262
  216    5581.5459     454.2404      32.7889     421.4515
  217    4907.5288     453.7805      33.1429     420.6376
  218    6008.8159     453.2574      33.4980     419.7594
  219    5487.0908     452.7265      33.8584     418.8682
  220    6064.0288     452.1609      34.2221     417.9388
  221    6387.7358     451.5607      34.5892     416.9716
  222    5969.8052     450.9262      34.9596     415.9667
  223    5724.6572     450.2579      35.3334     414.9245
  224    5238.1372     449.5566      35.7113     413.8453
  225    5334.3311     448.8226      36.0932     412.7294
  226    5632.4858     448.0555      36.4785     411.5770
  227    5791.2051     447.2560      36.8674     410.3886
  228    5262.7842     446.4241      37.2599     409.1642
  229    4980.0269     445.5602      37.6559     407.9042
  230    5383.9858     444.6646      38.0557     406.6089
  231    5718.6958     443.7377      38.4591     405.2786
  232    5988.0640     442.7798      38.8664     403.9135
  233    5956.9209     441.8180      39.2797     402.5384
  234    4419.0908     440.7989      39.6945     401.1044
  235    6361.1450     439.7495      40.1132     399.6364
  236    6613.8882     438.6703      40.5357     398.1346
  237    5088.7568     437.5883      40.9647     396.6236
  238    5748.0630     436.4502      41.3952     395.0550
  239    5443.6909     435.2832      41.8298     393.4535
  240    6037.1948     434.1139      42.2709     391.8430
  241    5428.4111     432.8897      42.7136     390.1761
  242    5102.0361     431.6375      43.1606     388.4769
  243    5122.0449     430.3836      43.6143     386.7693
  244    5174.9570     429.0758      44.0697     385.0061
  245    6054.9761     427.7668      44.5320     383.2348
  246    5410.7622     426.4048      44.9961     381.4087
  247    5513.8818     425.0419      45.4674     379.5745
  248    5746.8042     423.6264      45.9402     377.6863
  249    4472.8931     422.2107      46.4204     375.7903
  250    5341.5430     420.7432      46.9024     373.8408
  251    4775.1792     419.2757      47.3918     371.8839
  252    6041.2021     417.7578      47.8830     369.8748
  253    4771.8838     416.2413      48.3818     367.8595
  254    4761.6421     414.7018      48.8855     365.8163
  255    5548.3301     413.1145      49.3908     363.7237
  256    5001.9121     411.5315      49.9044     361.6271
  257    4991.7690     409.9032      50.4203     359.4830
  258    5665.6899     408.2802      50.9441     357.3361
  259    5049.3291     406.6385      51.4732     355.1653
  260    5485.4722     404.9545      52.0048     352.9497
  261    4891.0869     403.2783      52.5449     350.7334
  262    5812.1602     401.5854      53.0900     348.4954
  263    5334.0020     399.8770      53.6405     346.2365
  264    4666.9150     398.1294      54.1929     343.9364
  265    4563.2319     396.3923      54.7541     341.6382
  266    5203.7080     394.6420      55.3207     339.3213
  267    4857.5439     392.8796      55.8931     336.9865
  268    5436.7041     391.0825      56.4685     334.6140
  269    4681.3442     389.2988      57.0530     332.2458
  270    4083.0649     387.5050      57.6432     329.8618
  271    5119.7788     385.7019      58.2390     327.4629
  272    5668.4092     383.8904      58.8407     325.0497
  273    4573.1709     382.0478      59.4447     322.6031
  274    4795.4590     380.2217      60.0581     320.1636
  275    4187.4028     378.3894      60.6774     317.7120
  276    4288.6851     376.5518      61.3029     315.2489
  277    5368.5112     374.7095      61.9345     312.7750
  278    4723.2388     372.8633      62.5722     310.2910
  279    5069.4639     370.9911      63.2124     307.7787
  280    4393.5210     369.1395      63.8627     305.2768
  281    4297.6050     367.2861      64.5192     302.7668
  282    5330.3799     365.4318      65.1824     300.2495
  283    5177.6611     363.5773      65.8519     297.7254
  284    4529.8979     361.7233      66.5281     295.1952
  285    4131.8740     359.8705      67.2109     292.6596
  286    5141.5781     357.9977      67.8962     290.1015
  287    3848.0061     356.1498      68.5926     287.5572
  288    4118.6479     354.3052      69.2958     285.0095
  289    4782.7090     352.4648      70.0059     282.4589
  290    4564.9609     350.6291      70.7230     279.9061
  291    3550.0920     348.7989      71.4471     277.3518
  292    4448.3062     346.9751      72.1785     274.7966
  293    4613.5308     345.1582      72.9172     272.2410
  294    3849.0349     343.3276      73.6585     269.6691
  295    4017.4641     341.5268      74.4119     267.1149
  296    3941.2129     339.7348      75.1725     264.5623
  297    4284.6719     337.9526      75.9408     262.0118
  298    3918.2300     336.1808      76.7167     259.4641
  299    4167.6909     334.4200      77.5003     256.9196
  300    4435.9541     332.6710      78.2917     254.3792
  301    2982.4700     330.9138      79.0861     251.8277
  302    4162.6792     329.1904      79.8933     249.2971
  303    3259.0049     327.4805      80.7084     246.7720
  304    4049.6130     325.7849      81.5317     244.2532
  305    3771.2229     324.1042      82.3632     241.7410
  306    3326.9851     322.4190      83.1977     239.2213
  307    3602.1389     320.7701      84.0458     236.7244
  308    3735.2629     319.1380      84.9023     234.2357
  309    3374.0701     317.5233      85.7674     231.7559
  310    4242.6108     315.9263      86.6409     229.2854
  311    3298.3911     314.3285      87.5178     226.8107
  312    3248.4189     312.7694      88.4087     224.3607
  313    3761.9880     311.2302      89.3087     221.9215
  314    2944.8870     309.7113      90.2175     219.4938
  315    4140.9878     308.1942      91.1297     217.0645
  316    3903.4199     306.7179      92.0567     214.6612
  317    2852.8960     305.2637      92.9927     212.2709
  318    2986.7810     303.8136      93.9326     209.8810
  319    3679.7161     302.4054      94.8872     207.5182
  320    3484.5090     301.0212      95.8513     205.1699
  321    2552.9009     299.6428      96.8190     202.8239
  322    3556.8081     298.3084      97.8025     200.5060
  323    3042.8201     296.9995      98.7956     198.2040
  324    3470.5271     295.6987      99.7924     195.9062
  325    3792.7971     294.4427     100.8051     193.6377
  326    3158.4231     293.1961     101.8215     191.3746
